12/18/2023	2:25:25 PM

Pc[W]	Q0	Eacc[MV/m]	He_temp[K]
0.047	38155211540.185	3.954	1.455500
40602.867373	408.313762	477.326215	18362.483134	22813.954297	21489.855325	17421.842377	488.566984	22570.510655	18956.450501	17589.232896	19595.885075	20613.910501	17872.483878	33055.339429	20718.286789
19691.804975	31818.014703	17179.984751	16551.433531	21776.958514	31634.557778	24511.587630	451.192915	17082.283641	15827.809551	20731.744905	17439.257182	19101.941891	32630.140377	17024.044059	16881.414814
438.556254	31368.356731	37112.774241	17876.807116	14876.901457	17822.496377	15273.919922	18167.089431	487.684660	17594.343027	591.292876	18150.823454	20492.555350	17537.846245	26418.191181	43549.956078
16857.251102	439.107493	16607.710168	23774.398208	21674.657409	29105.187429	16041.818624	17256.825642	17937.756972	16766.421235	488.188701	17788.899677	18810.158344	17304.159424	19995.754590	26353.375694
31419.626531	105.220022	462.140586	14687.120341	29571.638949	17650.085151	19603.330363	414.641328	17497.313082	408.573573	30959.689712	32857.919979	430.594405	29368.847324	14219.949469	18624.839029
22376.302138	20280.487137	19316.219822	409.215354	20407.429490	413.075721	18665.235789	19208.120938	21375.299923	21248.116342	468.696554	17026.139623	16801.290598	451.262562	33955.442703	17132.258338
105133.424498	21965.210590	30145.709756	18609.536029	25181.260446	18965.823491	16068.507733	22371.735334	30200.617815	17757.886755	17629.961920	32631.134657	485.197507	18657.490450	30190.658880	26144.862355
105140.817558	27762.658533	29421.010098	16292.932423	17766.966875	16207.301894	30544.621693	475.695403	19463.471759	17976.703694	17780.445681	29315.497857	16973.987458	18142.191468	25068.990572	17363.806799
439.177416	17560.698077	25802.073595	17029.420627	17311.213672	17998.983192	491.958920	563.684391	17665.648006	29405.608062	18721.688857	19401.279103	18262.170723	21260.435672	18723.642495	26395.008418
453.332975	18207.892289	29400.601691	489.036816	38337.953056	447.411788	33298.761551	528.518713	22322.547944	467.445985	17087.657649	14757.248362	16705.424018	18565.518983	20118.650069	468.973444
105135.888736	689.785411	18844.772009	26654.012756	18378.299968	20078.481644	105133.424498	468.076778	18043.947439	101141.856709	29614.415275	17982.881970	17830.083784	105143.282143	15605.343664	17307.056403
28567.743739	29837.347402	415.825088	31284.684086	15667.850566	32169.430725	31229.540653	469.316274	440.080412	463.055556	26471.011848	20416.829360	19687.712801	23663.694331	17181.682548	428.047590
20566.834994	18342.464571	19141.197078	17584.143657	31508.783170	31785.359484	19324.001096	427.997470	372.800919	552.810726	22682.489745	17750.667062	15796.231998	15493.716749	14333.386976	27383.604499
491.993518	541.113952	18801.054760	18403.649166	33875.877550	18423.777599	15522.778607	19371.891829	17267.592351	16916.145050	25854.255589	16756.594178	17351.022009	16528.118749	541.624734	430.333586
30211.021901	32981.121591	17829.391467	17652.027202	29898.474343	477.188165	23795.811943	401.787782	23165.286786	19683.342137	32110.850658	18212.220946	17559.173950	17270.877648	18175.802413	105140.817558
105140.817558	105135.888736	105133.424498	105143.282143	105150.676589	105145.746843	105150.676589	105140.817558	105140.817558	578.270317	17759.796783	451.798442	475.996124	20190.847093	19184.901410	25718.580768
17396.400192	17758.368060	17526.384684	8162.881893	16268.863186	18529.097852	19918.583968	513.308157	20340.780821	23623.593524	388.953675	20357.630542	15843.441512	16198.612790	18400.841479	21583.127568
20740.011557	35490.715263	19670.606951	19181.869972	472.328375	1028.324978	29792.134096	17903.027267	20723.260372	18036.909898	36059.186229	31504.735578	30908.596472	14801.472963	21558.684796	595.694512
19796.592767	18019.442675	17981.519982	17035.253082	32518.460987	34227.028363	20786.007974	20489.439922	483.908678	20583.053976	34769.839036	19738.242755	25905.314551	17418.296023	15539.984315	105156.239428
18465.839285	19619.492762	17380.105121	18784.724257	30946.498919	24145.142009	17421.111068	105143.914410	18732.179770	20289.217388	30467.091076	23662.454144	21429.751860	406.303897	426.679253	444.125122
21460.540632	16726.390542	32825.248106	17652.702626	18561.818524	17958.617541	18381.166308	17629.250100	15898.049057	15069.135638	16532.040327	17477.171757	19334.476722	16983.590472	31864.337095	18792.782559
16750.161505	16596.226757	404.029381	17232.738920	17562.081961	18379.199758	23223.616768	18805.017805	470.707873	477.078490	32031.405365	32505.947053	23618.108211	18442.107063	14694.118611	412.130823
21922.964983	462.803303	18987.914734	434.470579	17847.661259	21782.623240	19951.425689	418.125340	20446.128315	458.536528	494.211179	17355.529632	23474.864635	24241.949570	22318.327219	20651.952105
105153.774194	637.848250	448.198677	22404.364812	30875.274017	23820.006158	499.746089	17046.393644	28727.142272	423.390317	30452.514435	15547.364390	26331.501522	16667.769224	32403.899523	440.857160
452.653317	438.541230	18191.725572	19252.042754	18710.237510	437.979717	19361.813124	494.635449	449.893878	17577.831563	18584.715561	16340.202973	19357.130812	18189.834376	439.954180	465.949520
15285.933908	18983.233434	23027.899292	448.718151	450.926214	31175.136394	16886.117302	18627.405938	397.239268	24024.326321	23913.708709	23431.673591	18179.081592	441.478177	19678.872686	472.312193
17158.053819	28423.393528	18846.847224	16589.160853	17504.378414	21165.008712	19857.188012	19125.639367	24200.363040	18711.621934	18057.872126	22474.032699	18682.828386	23052.229791	417.385703	623.220532
18539.823056	16709.067143	18680.341986	16716.686616	29738.353987	17446.630908	17404.362987	19591.709841	32366.511220	28873.824571	15202.980651	467.192873	15774.600515	22376.182735	29481.617817	18996.910586
16386.250287	105148.844070	33043.998026	33309.556719	19175.192175	21568.769730	34330.346743	18610.062697	89980.906250	23928.785003	20552.887976	19711.041833	31415.177281	33434.330591	16805.897521	16493.885474
31179.405959	25118.016363	22861.884733	18510.201965	20887.325881	18140.195011	15864.743349	21472.253314	18979.331563	17679.425232	105146.379182	16695.685129	19067.651549	433.086538	435.363204	17597.266724
449.461150	19889.164410	438.150420	452.520040	19916.370210	1037.081904	436.476075	521.348651	24462.371781	20410.653283	18939.597371	20436.015213	32672.957338	22836.321368	105153.774194	678.997159
18147.888774	22814.154973	16863.014045	27270.996398	479.141791	18653.040798	17009.016585	683.087834	105151.309074	9355.685840	20583.530445	25008.577508	17201.136558	21360.338591	32169.736754	461.574060
20940.601347	32917.867416	474.718675	30157.510250	30832.836794	32480.999189	27856.445661	19106.189628	30861.797012	29046.983208	32101.506156	30536.757657	17488.961001	24417.714088	703.144835	18057.889306
16693.509377	479.485142	19306.884475	16531.999597	18689.189138	17294.213171	19169.255770	15165.641497	19731.332826	32409.444600	18011.522240	29776.387678	17633.063705	19970.813134	20865.906895	412.079588
19606.877136	22091.113073	32506.869620	30608.636025	17607.762405	18162.977391	18133.729338	571.258645	20870.608252	17103.192487	20842.548427	32779.579677	19693.553436	454.857078	34523.616200	25314.953346
19361.439499	17280.795237	16378.612035	19091.189253	20473.552727	443.605240	18197.497459	810.961226	17916.286983	19525.512211	17955.409555	17264.995792	14886.905590	21992.882506	465.103649	397.338113
