12/18/2023	2:35:32 PM

Pc[W]	Q0	Eacc[MV/m]	He_temp[K]
0.472	29751573673.628	11.029	1.459700
40196.428890	405.666464	476.684449	18150.355949	22548.591768	21270.126336	17192.979879	484.796961	22306.900604	18687.768508	17332.226233	19266.028811	20292.193612	17674.429260	32685.522666	20504.338894
19472.482646	31408.659862	16974.475095	16382.822112	21523.153446	31238.759710	24218.107410	448.465134	16886.229981	15617.737888	20448.594603	17215.362888	18759.660131	31981.065593	16855.741557	16719.208978
436.871576	31020.713550	36687.945720	17663.250951	14714.948095	17571.556459	15092.158066	17975.616878	482.791679	17365.705063	587.843355	17873.095597	20156.072394	17340.825262	26111.034610	43771.754872
16630.774008	436.219600	16425.479568	23446.634208	21421.241562	28706.974265	15844.312027	17008.808754	17703.027509	16552.018051	488.910661	17517.287786	18542.217269	17092.067282	19719.877840	26083.680555
30998.098549	108.909980	464.145967	14533.644441	29169.513764	17432.121900	19374.804306	415.282984	20257.992946	407.931715	30577.448565	32391.519385	434.845720	29004.541144	14071.691859	18428.445744
22133.778847	20076.354765	19124.893987	408.974608	20185.203487	408.984195	18440.368047	19018.221262	21099.416372	20997.995435	465.247218	16836.841955	16578.931030	447.171029	33640.020893	16954.418099
105133.404450	21706.420002	29787.445406	18404.497722	24879.575537	18750.030961	15888.485038	22091.413107	29822.191838	17564.074479	17422.743400	32164.034062	483.592925	18469.841636	29854.318062	25865.053350
105140.797509	27416.652155	28952.204032	16087.148560	17533.200100	16038.622197	30155.044372	473.769745	19238.865563	17793.324127	17572.855212	28918.139099	16783.544549	17958.892082	24816.851492	17184.569243
435.086365	17379.805330	25380.717579	16839.543690	17107.548892	17758.574947	489.311730	561.518426	17467.659727	29015.978253	18501.670567	19195.504194	18074.276919	21036.315604	18534.161827	26112.879609
452.209983	18028.054868	29066.074567	490.159838	37871.408369	449.016192	32843.329488	527.716367	22070.810638	464.718393	16903.311352	14609.409090	16544.505494	18380.923049	19913.045082	466.005676
105135.868688	688.020507	18647.840187	26269.116666	18177.829385	19840.479371	103158.556019	467.114063	17832.406720	100342.196093	29339.892842	17785.606359	17617.420049	105143.262093	15452.545201	17137.149460
28229.229603	29501.063176	413.338401	30902.656629	15464.341806	31789.979032	30814.249914	471.321466	437.673764	459.365144	26138.170167	20191.420792	19458.384609	23400.738106	17014.724164	425.400288
20361.460932	18142.324254	18944.647836	17391.770851	31436.423369	31533.057869	19092.886669	427.195144	375.929308	548.318263	22409.795531	17532.548459	15608.026652	15345.375169	14175.823298	27104.870690
488.704376	538.787340	18578.694736	18205.745582	33451.080512	18219.111634	15340.210305	19136.445568	17090.381344	16732.275795	25515.910555	16561.177746	17151.910709	16356.146441	535.688579	430.333504
29847.551809	32610.786719	17641.528586	17455.586145	29499.859851	472.856564	23519.138558	401.466853	22907.298097	19453.339909	31662.066963	17973.170706	17331.835545	17097.441082	17989.855857	105140.797509
105140.797509	105135.868688	105133.404450	105143.262093	105150.656539	105145.726793	105150.656539	105140.797509	105140.797509	574.740745	17576.657915	450.434860	476.958614	19974.653188	18991.650350	25431.217809
17191.291554	17579.797378	17307.137927	9125.852129	16096.389464	18307.679717	19685.463931	514.511313	20108.548537	23341.953322	387.349337	20152.676860	15677.393177	16037.453725	18216.815769	21357.066409
20533.458326	35094.345191	19415.982327	18945.770936	469.600845	1019.260057	29198.053703	17693.907854	20494.070875	17822.556495	35654.963964	31110.353728	30569.015000	14654.993905	21347.459200	594.892117
19586.337575	17837.825688	17793.882252	16856.135651	32045.648969	33827.205042	20567.244333	20265.648721	483.587691	20347.433153	34308.599442	19530.766027	25678.859198	17222.877084	15385.481517	105156.219377
18278.758608	19407.477784	17175.465701	18560.361429	30599.004345	23860.430177	17222.318233	105143.894360	18529.224643	20039.981979	30040.204576	23326.568780	21165.028277	404.699460	426.197864	439.954096
21233.984893	16557.199678	32468.600260	17460.278837	18345.130916	17754.784958	18183.194054	17447.236369	15713.861214	14909.754584	16353.873021	17268.244621	19124.758577	16814.010371	31498.544835	18596.872827
16582.987937	16366.324225	403.307393	17026.424624	17343.624523	18151.526889	22935.689523	18594.762824	468.060654	473.147536	31629.496900	32033.776785	23288.014171	18258.623467	14452.430377	413.333929
21688.317555	460.557376	18789.692417	436.957310	17644.635530	21528.426021	19716.195093	417.242801	20209.268363	458.055122	493.168276	17127.092249	23143.663127	23969.771463	22043.335530	20445.396444
105153.754142	638.329402	447.797483	22163.299682	30526.952821	23521.503245	501.671179	16879.525234	28388.287568	424.112198	30005.201857	15331.575053	25925.041023	16413.475018	31833.649231	442.541574
454.498503	435.091856	18007.866752	19046.756383	18500.057840	435.091856	19116.359580	492.790299	450.615804	17399.908865	18358.994427	16133.789296	19163.235643	18008.884547	437.788415	468.275969
15135.923370	18791.415068	22778.508692	449.199350	452.530562	30832.189867	16688.211658	18436.795469	394.592001	23764.168490	23645.646833	23158.687105	17987.210159	438.831150	19469.028447	469.183677
16982.241553	28112.593951	18615.693265	16363.300893	17267.931220	20863.835404	19634.214729	18850.212272	23859.166801	18449.909956	17821.505020	22094.017702	18464.266621	22794.045872	417.305418	625.385942
18351.418344	16543.842006	18471.725625	16510.557014	29355.690457	17247.158156	17206.654748	19386.862913	31852.952474	28450.336937	14999.097100	468.636470	15509.600773	22045.894784	29121.973173	18793.748086
16232.863177	105148.824020	32672.830974	32917.150677	18987.955294	21325.865420	33940.729608	18423.886250	89601.503425	23665.344351	20333.252262	19501.258133	31073.064969	33069.981823	16634.945771	16335.138371
30833.876191	24845.690390	22596.920176	18300.017411	20683.964427	17897.446188	15690.924248	21237.594979	18778.542269	17489.216069	105146.359132	16527.464819	18870.712701	431.963431	441.780856	17415.244466
448.578667	19653.881176	437.027286	457.012263	19711.268074	1035.557530	439.604564	519.022177	24188.355074	20191.799240	18750.595614	20211.892677	32345.939733	22586.604101	105153.754142	679.718941
17972.030965	22577.667832	16680.911720	26978.529751	475.130804	18457.461159	16802.211357	684.772359	105151.289023	9340.685055	20370.151584	24704.319697	17026.663230	21132.317464	31820.685072	458.365255
20720.709438	32470.564663	472.071455	29808.732439	30434.467660	32070.035379	27461.187257	18875.564616	30428.282164	28581.665133	31520.025918	30049.117255	17297.637745	24146.411958	703.625964	17868.566944
16533.226890	481.169706	19042.951165	16347.080974	18479.024253	17051.842904	18936.855095	14984.421941	19506.007225	31911.604549	17699.784351	29259.308123	17409.914799	19756.381543	20655.325668	410.074061
19422.933492	21856.396391	32035.592798	30180.606309	17387.997796	17948.305525	17962.384247	573.905479	20615.047619	16856.198025	20571.413888	32396.576596	19487.540165	457.263642	34125.137865	25065.069234
19158.342847	17113.376987	16203.400505	18882.703892	20248.938366	443.524938	17964.209102	807.591760	17678.539708	19170.455325	17644.036374	17013.262549	14683.380201	21746.207857	465.023342	397.979811
