12/18/2023	2:45:33 PM

Pc[W]	Q0	Eacc[MV/m]	He_temp[K]
7.366	5746243002.989	19.157	1.484100
38319.285585	407.190737	472.914742	17162.750307	21196.859632	20035.132344	16273.617272	482.390760	21019.602658	17620.200307	16351.543588	18114.999612	19062.134426	16660.594819	30636.653854	19316.943649
18320.864964	29481.930090	16054.433638	15483.876656	20275.091017	29333.207333	22765.418260	443.330776	15926.036862	14751.559921	19101.048213	16254.345116	17667.535801	29956.536113	15896.568772	15793.968774
434.064042	29132.861568	34379.433853	16676.837820	13900.306493	16615.708149	14286.038027	16928.758366	478.540618	16384.666809	583.752363	16866.088865	18979.002871	16381.411889	24520.094898	45620.025493
15732.263714	434.856037	15534.318147	22045.440962	20216.839952	26954.676418	15021.010610	16086.141885	16699.229589	15617.822576	484.578477	16512.918705	17479.938482	16143.207037	18617.675045	24593.493597
29126.485649	104.899164	457.889032	13743.017267	27407.030432	16433.618518	18226.262410	412.475510	19075.197874	404.803151	28702.699760	30400.328214	433.642618	27244.498671	13303.706452	17359.779403
20802.136552	18967.489359	18088.069575	402.717363	19019.144672	404.411518	17442.483167	17998.307619	19869.075175	19802.205260	460.033372	15926.067701	15680.766684	440.512527	32108.998462	15970.824676
105133.434522	20433.912502	27981.320375	17393.928504	23382.655457	17710.238403	15031.310364	20889.357429	28000.616844	16621.426892	16456.385904	30222.028110	478.218025	17462.386647	28041.502265	24330.309904
105140.827583	25782.601006	27192.846863	15213.086178	16544.884776	15133.563909	28275.065703	472.405937	18156.206684	16766.952076	16603.746030	27111.165173	15839.693564	16953.216050	23420.613617	16198.143773
431.958102	16393.942831	23845.877407	15916.811917	16173.630557	16742.093411	489.231655	557.748391	16520.738325	27214.746716	17459.272711	18095.094799	17038.879458	19808.335735	17499.423040	24592.450778
448.520565	17042.823258	27278.679032	487.673078	35505.689374	446.609586	30770.698786	518.250032	20845.122302	461.429477	15992.671017	13822.342376	15667.497386	17378.144583	18773.941594	463.439168
105135.898760	676.148597	17599.834202	24669.796858	17187.772495	18666.615885	74339.502332	462.461505	16856.227659	101939.022580	28024.996294	16803.261571	16662.097878	105143.292167	14615.823709	16163.858187
26503.083965	27701.435945	410.932123	29037.322431	14622.327875	29868.533647	28943.030611	464.583852	434.144261	453.990236	24592.560894	19016.674970	18371.204457	21998.709852	16085.685044	420.507061
19233.455035	17168.918314	17895.420497	16406.503899	30251.328612	29891.740465	17995.095854	419.975064	372.720738	545.510695	21118.556181	16517.944493	14800.589980	14530.760445	13437.520984	25554.666137
484.613260	533.412455	17527.881212	17158.332163	31391.156785	17151.357898	14497.734811	18031.033957	16144.823644	15838.941775	24038.707827	15660.644939	16227.290642	15467.991195	537.052420	421.831229
28019.890674	30587.905370	16640.632243	16521.288696	27710.019344	471.493075	22135.480022	393.766503	21563.957276	18381.409600	29752.484998	16962.601431	16379.904842	16141.236434	16985.062216	105140.827583
105140.827583	105135.898760	105133.434522	105143.292167	105150.686615	105145.756868	105150.686615	105140.827583	105140.827583	567.441339	16603.630169	445.382032	475.194019	18863.786777	17956.751178	23872.977379
16259.137923	16620.143383	16379.950816	8280.707580	15215.750874	17259.575419	18535.530862	509.778660	18931.769745	21962.739056	384.862840	19051.247721	14825.833685	15166.221162	17194.591096	20075.975466
19402.456323	32953.464165	18351.778338	17844.158174	466.392227	1010.275841	27402.682543	16730.230478	19303.065771	16835.765402	33934.552032	29129.257856	28690.728804	13858.282710	20162.121919	590.479734
18447.888866	16816.735628	16833.815591	15956.799377	30076.944051	31752.322682	19451.230681	19091.934032	479.817320	19192.619105	32203.461723	18383.331940	24490.623362	16234.171815	14524.666535	105156.249454
17256.176766	18349.993827	16207.158975	17528.570681	28724.723808	22480.220414	16246.104382	105143.924434	17493.695478	18883.912497	28220.935930	21942.139675	19898.551845	401.490858	422.427742	432.815493
19992.770070	15653.345721	30498.497495	16504.999226	17334.558677	16781.286996	17137.686589	16446.384636	14863.053619	14120.648166	15471.078521	16318.027002	18068.569913	15888.240809	29503.254213	17507.440758
15671.817664	15459.485585	397.692647	16068.190044	16343.136809	17125.655943	21567.881971	17490.647257	464.611496	471.382794	29664.115027	30005.229068	21865.868117	17266.536349	13672.912585	407.879610
20387.718027	460.076256	17709.321424	433.507982	16679.582446	20274.150774	18642.276281	410.183243	19023.309257	452.840963	488.034588	16175.181349	21743.000451	22551.475850	20748.622455	19254.220247
105153.784219	631.992812	445.230516	20834.783686	28655.187717	22097.365268	496.136413	15957.278941	26675.197627	420.983819	28127.981843	14422.308384	24204.571156	15393.347266	29599.212580	436.204779
450.086024	435.813925	16988.806067	17928.897411	17439.796658	433.968955	18059.967922	493.432198	444.839834	16465.155213	17300.998355	15154.606997	18091.262467	17000.931594	434.580123	460.895359
14313.211883	17717.225534	21426.021912	448.958836	446.433841	28973.901734	15769.618469	17379.878736	392.827319	22338.185461	22180.080818	21610.404823	16811.542400	434.259281	18176.220565	467.098193
15995.165299	26397.178429	17594.690689	15446.804796	16287.993274	19637.829581	18561.480187	17766.890562	22376.024435	17117.712400	16174.422981	18254.936383	15606.411895	18561.719817	409.285058	622.498748
17325.603409	15634.564363	17454.011410	15587.163322	27597.926788	16306.520570	16261.926703	18254.616312	29468.226239	25009.872867	12419.553110	454.440355	5604.710738	10362.059190	18496.674260	17422.169953
15385.645718	105148.854096	30674.090985	30815.270862	17944.620596	20082.973108	31872.201367	17372.066550	88231.569545	21969.942145	14474.591188	14715.793130	24748.799376	18443.928727	14277.367838	15177.571135
28965.874068	23352.061669	21255.440065	17252.245937	19452.434105	16877.776177	14827.623308	19929.313132	17105.119216	13217.090409	105146.389207	7563.831097	14325.243808	362.015138	407.847197	16113.761746
445.690949	18497.062555	435.102180	448.829971	18576.053781	1029.140240	435.272819	516.776170	22402.309989	18267.880507	14972.563544	16128.109223	12814.732682	17508.445493	105153.784219	669.131110
16997.536442	21276.858261	15771.463588	25412.192016	473.446362	17410.837348	15837.674801	680.601026	105151.319100	8414.679688	14648.419507	14729.198283	8250.143100	14183.579820	20321.932769	449.461193
19496.931768	30498.009221	467.739922	28001.029832	28575.420925	30114.807068	25741.960270	17752.062673	28253.044643	25801.027269	26312.195594	24952.184911	14255.374149	21597.168391	699.936485	16601.418438
15632.683134	473.789446	17997.345839	15460.694551	17476.992970	16105.565430	17872.422570	14159.685650	18344.429953	29452.285143	16036.269260	26177.889296	15957.066965	18048.023716	19223.486088	408.389602
18410.667711	20565.644238	30110.812322	28366.085529	16396.670779	16974.681743	17007.656893	569.093017	19427.268317	15857.809479	19283.148238	30338.027831	18318.954873	451.568032	31746.510884	23571.335437
18049.357849	16182.050741	15343.648297	17851.931817	19135.036493	442.402013	16963.367321	801.094033	16732.863030	18031.578820	16659.560909	16026.241846	13812.496980	20441.387258	457.884077	393.567730
